a1 (ps LAG)  QIVTFFQEVPHVIEEVMNIVLIALSVLAVLKGLYNFATCGLVGLVTFLLLCGR    Length:  53  aa.


Amphipathic Index:   2.24017      Mean hydrophobicity:    2.4570


Power Spectrum Data


 Frequency      Period         Power        Norm. Power    Norm. Power
                             (100ø=1000)  (Max.Power=1000)
    1.00      360.0000         53.2269         51.8938        17.4769
    2.00      180.0000        184.2927        179.6770        60.5119
    3.00      120.0000        322.7455        314.6622       105.9725
    4.00       90.0000        394.3719        384.4947       129.4908
    5.00       72.0000        361.8953        352.8315       118.8272
    6.00       60.0000        246.8015        240.6203        81.0365
    7.00       51.4286        120.6216        117.6006        39.6057
    8.00       45.0000         69.9374         68.1858        22.9637
    9.00       40.0000        152.9575        149.1266        50.2231
   10.00       36.0000        369.6462        360.3883       121.3722
   11.00       32.7273        659.9955        643.4657       216.7075
   12.00       30.0000        930.3298        907.0294       305.4709
   13.00       27.6923       1093.5697       1066.1809       359.0702
   14.00       25.7143       1103.5173       1075.8794       362.3365
   15.00       24.0000        968.0841        943.8381       317.8674
   16.00       22.5000        738.4348        719.9405       242.4628
   17.00       21.1765        483.0319        470.9342       158.6020
   18.00       20.0000        261.0810        254.5421        85.7251
   19.00       18.9474        106.7898        104.1152        35.0641
   20.00       18.0000         27.5354         26.8458         9.0412
   21.00       17.1429         11.3329         11.0491         3.7211
   22.00       16.3636         36.3701         35.4592        11.9420
   23.00       15.6522         78.0790         76.1235        25.6370
   24.00       15.0000        113.7287        110.8803        37.3425
   25.00       14.4000        126.7317        123.5577        41.6120
   26.00       13.8462        111.2763        108.4893        36.5372
   27.00       13.3333         74.7467         72.8746        24.5428
   28.00       12.8571         34.4270         33.5648        11.3040
   29.00       12.4138          8.0896          7.8870         2.6562
   30.00       12.0000          3.2754          3.1934         1.0755
   31.00       11.6129         12.8502         12.5284         4.2193
   32.00       11.2500         21.3898         20.8541         7.0233
   33.00       10.9091         19.1860         18.7055         6.2997
   34.00       10.5882         13.6423         13.3006         4.4794
   35.00       10.2857         27.6289         26.9369         9.0719
   36.00       10.0000         82.7374         80.6652        27.1666
   37.00        9.7297        177.4179        172.9744        58.2546
   38.00        9.4737        276.8667        269.9325        90.9083
   39.00        9.2308        326.7133        318.5306       107.2753
   40.00        9.0000        287.2693        280.0745        94.3240
   41.00        8.7805        168.7684        164.5415        55.4146
   42.00        8.5714         42.5024         41.4379        13.9555
   43.00        8.3721         14.0223         13.6711         4.6042
   44.00        8.1818        167.5153        163.3198        55.0031
   45.00        8.0000        511.0672        498.2674       167.8073
   46.00        7.8261        956.5759        932.6182       314.0887
   47.00        7.6596       1350.9392       1317.1045       443.5767
   48.00        7.5000       1545.8191       1507.1035       507.5649
   49.00        7.3469       1469.4619       1432.6587       482.4932
   50.00        7.2000       1161.0371       1131.9585       381.2229
   51.00        7.0588        748.4870        729.7409       245.7634
   52.00        6.9231        382.9210        373.3306       125.7309
   53.00        6.7925        166.7215        162.5459        54.7425
   54.00        6.6667        114.2029        111.3427        37.4982
   55.00        6.5455        162.6214        158.5485        53.3962
   56.00        6.4286        221.2812        215.7391        72.6570
   57.00        6.3158        226.1904        220.5254        74.2689
   58.00        6.2069        168.7300        164.5041        55.4020
   59.00        6.1017         86.5592         84.3913        28.4214
   60.00        6.0000         29.3209         28.5865         9.6274
   61.00        5.9016         24.8765         24.2535         8.1681
   62.00        5.8065         66.8154         65.1420        21.9386
   63.00        5.7143        126.4725        123.3050        41.5269
   64.00        5.6250        175.9401        171.5336        57.7694
   65.00        5.5385        203.7926        198.6885        66.9147
   66.00        5.4545        214.1271        208.7642        70.3080
   67.00        5.3731        213.8667        208.5103        70.2225
   68.00        5.2941        201.8464        196.7911        66.2756
   69.00        5.2174        170.0561        165.7970        55.8374
   70.00        5.1429        115.9100        113.0070        38.0587
   71.00        5.0704         54.1466         52.7905        17.7789
   72.00        5.0000         16.1622         15.7574         5.3068
   73.00        4.9315         33.9811         33.1300        11.1576
   74.00        4.8649        118.4481        115.4815        38.8921
   75.00        4.8000        247.0584        240.8707        81.1209
   76.00        4.7368        371.4391        362.1363       121.9609
   77.00        4.6753        441.4967        430.4393       144.9641
   78.00        4.6154        431.8563        421.0403       141.7987
   79.00        4.5570        354.4888        345.6105       116.3953
   80.00        4.5000        250.4017        244.1303        82.2186
   81.00        4.4444        166.5977        162.4252        54.7018
   82.00        4.3902        133.0103        129.6790        43.6735
   83.00        4.3373        152.5539        148.7331        50.0906
   84.00        4.2857        207.7056        202.5035        68.1995
   85.00        4.2353        276.4473        269.5236        90.7706
   86.00        4.1860        345.9772        337.3121       113.6005
   87.00        4.1379        416.3096        405.8830       136.6940
   88.00        4.0909        493.8527        481.4840       162.1550
   89.00        4.0449        581.1749        566.6192       190.8270
   90.00        4.0000        669.8685        653.0914       219.9492
   91.00        3.9560        739.7963        721.2679       242.9098
   92.00        3.9130        764.1057        744.9684       250.8917
   93.00        3.8710        718.1523        700.1659       235.8031
   94.00        3.8298        591.2499        576.4418       194.1351
   95.00        3.7895        399.8963        389.8808       131.3047
   96.00        3.7500        197.8701        192.9144        64.9700
   97.00        3.7113         74.5614         72.6940        24.4820
   98.00        3.6735        133.2876        129.9494        43.7646
   99.00        3.6364        449.8436        438.5771       147.7047
  100.00        3.6000       1025.6887       1000.0000       336.7817
  101.00        3.5644       1761.0415       1716.9356       578.2325
  102.00        3.5294       2470.7625       2408.8814       811.2671
  103.00        3.4951       2947.0232       2873.2140       967.6459
  104.00        3.4615       3045.5596       2969.2825      1000.0000
  105.00        3.4286       2753.1111       2684.1585       903.9754
  106.00        3.3962       2196.9390       2141.9159       721.3581
  107.00        3.3645       1585.3669       1545.6609       520.5503
  108.00        3.3333       1106.9077       1079.1848       363.4497
  109.00        3.3028        842.0555        820.9659       276.4863
  110.00        3.2727        737.9545        719.4722       242.3051
  111.00        3.2432        661.6149        645.0446       217.2392
  112.00        3.2143        500.8918        488.3468       164.4663
  113.00        3.1858        252.1070        245.7929        82.7785
  114.00        3.1579         38.6759         37.7072        12.6991
  115.00        3.1304         44.9061         43.7814        14.7448
  116.00        3.1034        400.4839        390.4536       131.4976
  117.00        3.0769       1083.1722       1056.0438       355.6562
  118.00        3.0508       1899.8800       1852.2969       623.8197
  119.00        3.0252       2562.9124       2498.7234       841.5243
  120.00        3.0000       2823.9041       2753.1784       927.2201
  121.00        2.9752       2594.4143       2529.4363       851.8678
  122.00        2.9508       1988.7765       1938.9669       653.0086
  123.00        2.9268       1267.2701       1235.5309       416.1042
  124.00        2.9032        711.1241        693.3137       233.4954
  125.00        2.8800        495.1510        482.7498       162.5813
  126.00        2.8571        621.0154        605.4618       203.9085
  127.00        2.8346        938.3911        914.8888       308.1178
  128.00        2.8125       1234.4026       1203.4866       405.3122
  129.00        2.7907       1339.9320       1306.3730       439.9625
  130.00        2.7692       1199.6833       1169.6369       393.9123
  131.00        2.7481        878.3820        856.3826       288.4140
  132.00        2.7273        511.0085        498.2101       167.7881
  133.00        2.7068        230.5694        224.7947        75.7067
  134.00        2.6866        111.2140        108.4286        36.5168
  135.00        2.6667        149.4222        145.6799        49.0623
  136.00        2.6471        283.1534        276.0617        92.9725
  137.00        2.6277        431.4253        420.6201       141.6571
  138.00        2.6087        531.9940        518.6700       174.6786
  139.00        2.5899        561.5752        547.5104       184.3915
  140.00        2.5714        534.8295        521.4345       175.6096
  141.00        2.5532        488.1068        475.8820       160.2683
  142.00        2.5352        458.1881        446.7126       150.4446
  143.00        2.5175        465.2664        453.6136       152.7688
  144.00        2.5000        505.6474        492.9833       166.0277
  145.00        2.4828        555.3683        541.4589       182.3534
  146.00        2.4658        582.1879        567.6068       191.1596
  147.00        2.4490        560.6564        546.6145       184.0898
  148.00        2.4324        483.8168        471.6994       158.8597
  149.00        2.4161        366.3356        357.1606       120.2852
  150.00        2.4000        237.5908        231.6403        78.0122
  151.00        2.3841        128.1878        124.9773        42.0901
  152.00        2.3684         56.8315         55.4081        18.6604
  153.00        2.3529         24.3019         23.6933         7.9795
  154.00        2.3377         17.1624         16.7326         5.6352
  155.00        2.3226         18.1330         17.6789         5.9539
  156.00        2.3077         16.3356         15.9265         5.3637
  157.00        2.2930         11.2981         11.0151         3.7097
  158.00        2.2785          9.2047          8.9742         3.0223
  159.00        2.2642         15.2488         14.8669         5.0069
  160.00        2.2500         28.3550         27.6448         9.3103
  161.00        2.2360         42.3523         41.2916        13.9062
  162.00        2.2222         52.5048         51.1898        17.2398
  163.00        2.2086         61.9344         60.3832        20.3360
  164.00        2.1951         82.1597         80.1020        26.9769
  165.00        2.1818        126.0839        122.9261        41.3993
  166.00        2.1687        197.4738        192.5280        64.8399
  167.00        2.1557        284.1575        277.0407        93.3022
  168.00        2.1429        360.4042        351.3778       118.3376
  169.00        2.1302        398.2229        388.2493       130.7552
  170.00        2.1176        381.3985        371.8462       125.2310
  171.00        2.1053        314.0269        306.1620       103.1097
  172.00        2.0930        218.5160        213.0432        71.7490
  173.00        2.0809        124.4162        121.3002        40.8517
  174.00        2.0690         54.8116         53.4388        17.9972
  175.00        2.0571         17.9232         17.4743         5.8850
  176.00        2.0455          7.6873          7.4948         2.5241
  177.00        2.0339         11.2506         10.9688         3.6941
  178.00        2.0225         17.5112         17.0726         5.7497
  179.00        2.0112         21.3820         20.8465         7.0207
  180.00        2.0000         22.4962         21.9328         7.3866




a1 (ps LAJ)  QIVTFFQEVPHVIEEVMNIVLIALSVLAVLKGLYNFATCGLVGLVTFLLLCGR    Length:  53  aa.


Amphipathic Index:   2.24017      Mean hydrophobicity:    2.4570


Power Spectrum Data


 Frequency      Period         Power        Norm. Power    Norm. Power
                             (100ø=1000)  (Max.Power=1000)
    1.00      360.0000         53.2269         51.8938        17.4769
    2.00      180.0000        184.2927        179.6770        60.5119
    3.00      120.0000        322.7455        314.6622       105.9725
    4.00       90.0000        394.3719        384.4947       129.4908
    5.00       72.0000        361.8953        352.8315       118.8272
    6.00       60.0000        246.8015        240.6203        81.0365
    7.00       51.4286        120.6216        117.6006        39.6057
    8.00       45.0000         69.9374         68.1858        22.9637
    9.00       40.0000        152.9575        149.1266        50.2231
   10.00       36.0000        369.6462        360.3883       121.3722
   11.00       32.7273        659.9955        643.4657       216.7075
   12.00       30.0000        930.3298        907.0294       305.4709
   13.00       27.6923       1093.5697       1066.1809       359.0702
   14.00       25.7143       1103.5173       1075.8794       362.3365
   15.00       24.0000        968.0841        943.8381       317.8674
   16.00       22.5000        738.4348        719.9405       242.4628
   17.00       21.1765        483.0319        470.9342       158.6020
   18.00       20.0000        261.0810        254.5421        85.7251
   19.00       18.9474        106.7898        104.1152        35.0641
   20.00       18.0000         27.5354         26.8458         9.0412
   21.00       17.1429         11.3329         11.0491         3.7211
   22.00       16.3636         36.3701         35.4592        11.9420
   23.00       15.6522         78.0790         76.1235        25.6370
   24.00       15.0000        113.7287        110.8803        37.3425
   25.00       14.4000        126.7317        123.5577        41.6120
   26.00       13.8462        111.2763        108.4893        36.5372
   27.00       13.3333         74.7467         72.8746        24.5428
   28.00       12.8571         34.4270         33.5648        11.3040
   29.00       12.4138          8.0896          7.8870         2.6562
   30.00       12.0000          3.2754          3.1934         1.0755
   31.00       11.6129         12.8502         12.5284         4.2193
   32.00       11.2500         21.3898         20.8541         7.0233
   33.00       10.9091         19.1860         18.7055         6.2997
   34.00       10.5882         13.6423         13.3006         4.4794
   35.00       10.2857         27.6289         26.9369         9.0719
   36.00       10.0000         82.7374         80.6652        27.1666
   37.00        9.7297        177.4179        172.9744        58.2546
   38.00        9.4737        276.8667        269.9325        90.9083
   39.00        9.2308        326.7133        318.5306       107.2753
   40.00        9.0000        287.2693        280.0745        94.3240
   41.00        8.7805        168.7684        164.5415        55.4146
   42.00        8.5714         42.5024         41.4379        13.9555
   43.00        8.3721         14.0223         13.6711         4.6042
   44.00        8.1818        167.5153        163.3198        55.0031
   45.00        8.0000        511.0672        498.2674       167.8073
   46.00        7.8261        956.5759        932.6182       314.0887
   47.00        7.6596       1350.9392       1317.1045       443.5767
   48.00        7.5000       1545.8191       1507.1035       507.5649
   49.00        7.3469       1469.4619       1432.6587       482.4932
   50.00        7.2000       1161.0371       1131.9585       381.2229
   51.00        7.0588        748.4870        729.7409       245.7634
   52.00        6.9231        382.9210        373.3306       125.7309
   53.00        6.7925        166.7215        162.5459        54.7425
   54.00        6.6667        114.2029        111.3427        37.4982
   55.00        6.5455        162.6214        158.5485        53.3962
   56.00        6.4286        221.2812        215.7391        72.6570
   57.00        6.3158        226.1904        220.5254        74.2689
   58.00        6.2069        168.7300        164.5041        55.4020
   59.00        6.1017         86.5592         84.3913        28.4214
   60.00        6.0000         29.3209         28.5865         9.6274
   61.00        5.9016         24.8765         24.2535         8.1681
   62.00        5.8065         66.8154         65.1420        21.9386
   63.00        5.7143        126.4725        123.3050        41.5269
   64.00        5.6250        175.9401        171.5336        57.7694
   65.00        5.5385        203.7926        198.6885        66.9147
   66.00        5.4545        214.1271        208.7642        70.3080
   67.00        5.3731        213.8667        208.5103        70.2225
   68.00        5.2941        201.8464        196.7911        66.2756
   69.00        5.2174        170.0561        165.7970        55.8374
   70.00        5.1429        115.9100        113.0070        38.0587
   71.00        5.0704         54.1466         52.7905        17.7789
   72.00        5.0000         16.1622         15.7574         5.3068
   73.00        4.9315         33.9811         33.1300        11.1576
   74.00        4.8649        118.4481        115.4815        38.8921
   75.00        4.8000        247.0584        240.8707        81.1209
   76.00        4.7368        371.4391        362.1363       121.9609
   77.00        4.6753        441.4967        430.4393       144.9641
   78.00        4.6154        431.8563        421.0403       141.7987
   79.00        4.5570        354.4888        345.6105       116.3953
   80.00        4.5000        250.4017        244.1303        82.2186
   81.00        4.4444        166.5977        162.4252        54.7018
   82.00        4.3902        133.0103        129.6790        43.6735
   83.00        4.3373        152.5539        148.7331        50.0906
   84.00        4.2857        207.7056        202.5035        68.1995
   85.00        4.2353        276.4473        269.5236        90.7706
   86.00        4.1860        345.9772        337.3121       113.6005
   87.00        4.1379        416.3096        405.8830       136.6940
   88.00        4.0909        493.8527        481.4840       162.1550
   89.00        4.0449        581.1749        566.6192       190.8270
   90.00        4.0000        669.8685        653.0914       219.9492
   91.00        3.9560        739.7963        721.2679       242.9098
   92.00        3.9130        764.1057        744.9684       250.8917
